Start Date: 2/3/2022
Start Time: 14:44:0
Test system information: GeneralPhotonics, POD-201, V1.3.1-20181218, 154000000074
SOP sampling rate: 10000.0000sps
Integration time: 1.0000us
Scrambler DOP Average Number: 1 
Wavelength: 1550nm 
Time Interval(ms): 5000.0000
Calibration matrix: DEFAULT MATRIX
Total sampling numbers: 17280

--Time(ms)--S0(mW)--S1--S2--S3--DOP(%)--Average DOP(%)--
1.90000	1.25240	0.60677	0.25080	-0.75445	100.05493	100.05493
3.90000	1.26788	0.60637	0.25178	-0.75439	100.03357	100.03357
1.70000	1.26916	0.60543	0.25407	-0.75454	100.03052	100.03052
3.70000	1.26944	0.60576	0.25355	-0.75430	100.04272	100.04272
1.50000	1.27029	0.60140	0.26911	-0.75253	100.05493	100.05493
3.50000	1.25851	0.60045	0.28214	-0.74844	100.07629	100.07629
1.30000	1.25098	0.60063	0.28516	-0.74706	100.07935	100.07935
3.30000	1.26476	0.60082	0.28333	-0.74770	100.04272	100.04272
1.10000	1.26845	0.60057	0.28452	-0.74728	100.07629	100.07629
3.10000	1.26816	0.60088	0.28468	-0.74712	100.04272	100.04272
0.90000	1.27143	0.60082	0.28413	-0.74737	100.08850	100.08850
2.90000	1.26689	0.60076	0.28190	-0.74822	100.06714	100.06714
0.70000	1.26774	0.60057	0.28343	-0.74786	100.05493	100.05493
2.70000	1.27129	0.60161	0.29102	-0.74404	100.06409	100.06409
0.50000	1.26362	0.60176	0.29246	-0.74328	100.07629	100.07629
2.50000	1.25254	0.60189	0.29170	-0.74361	100.06714	100.06714
0.30000	1.25311	0.60201	0.29353	-0.74270	100.08850	100.08850
2.30000	1.25042	0.60253	0.29585	-0.74123	100.07935	100.07935
0.10000	1.26036	0.60115	0.28809	-0.74560	100.08850	100.08850
2.10000	1.26163	0.60063	0.28449	-0.74734	100.05493	100.05493
4.10000	1.25183	0.60060	0.28596	-0.74670	100.10071	100.10071
1.90000	1.26703	0.60045	0.28083	-0.74880	100.04272	100.04272
3.90000	1.25979	0.60057	0.27659	-0.75033	100.06714	100.06714
1.70000	1.26745	0.60103	0.27204	-0.75161	100.07629	100.07629
3.70000	1.26987	0.60155	0.26966	-0.75204	100.04272	100.04272
1.50000	1.25822	0.60259	0.26316	-0.75347	100.06714	100.06714
3.50000	1.25453	0.60344	0.26002	-0.75396	100.04272	100.04272
1.30000	1.25695	0.60396	0.25800	-0.75417	100.06714	100.06714
3.30000	1.26121	0.60445	0.25690	-0.75426	100.05493	100.05493
1.10000	1.26163	0.60347	0.26008	-0.75390	100.06714	100.06714
3.10000	1.25368	0.60317	0.26109	-0.75378	100.06714	100.06714
0.90000	1.26532	0.60268	0.26310	-0.75350	100.07629	100.07629
2.90000	1.27044	0.60332	0.26044	-0.75384	100.04272	100.04272
0.70000	1.25198	0.60372	0.25861	-0.75417	100.04272	100.04272
2.70000	1.27015	0.60500	0.25520	-0.75442	100.02136	100.02136
0.50000	1.27143	0.60582	0.25321	-0.75433	100.02136	100.02136
2.50000	1.25851	0.60549	0.25452	-0.75426	100.04272	100.04272
0.30000	1.25979	0.60503	0.25614	-0.75402	100.02136	100.02136
2.30000	1.25851	0.60475	0.25596	-0.75442	100.05493	100.05493
0.10000	1.26660	0.60457	0.25602	-0.75439	100.04272	100.04272
2.10000	1.25908	0.60494	0.25480	-0.75454	100.04272	100.04272
4.10000	1.25169	0.60540	0.25413	-0.75442	100.03357	100.03357
1.90000	1.26916	0.60552	0.25376	-0.75442	100.04272	100.04272
3.90000	1.25950	0.60695	0.25043	-0.75439	100.05493	100.05493
1.70000	1.25993	0.60829	0.24741	-0.75430	100.02136	100.02136
3.70000	1.26064	0.60753	0.24928	-0.75420	100.04272	100.04272
1.50000	1.26632	0.60991	0.24421	-0.75399	100.07629	100.07629
3.50000	1.26916	0.60649	0.25138	-0.75439	100.03052	100.03052
1.30000	1.27086	0.60134	0.26661	-0.75338	100.03052	100.03052
3.30000	1.25042	0.60631	0.25141	-0.75457	100.04272	100.04272
1.10000	1.25879	0.60707	0.24992	-0.75448	100.02136	100.02136
3.10000	1.26902	0.60759	0.24870	-0.75439	100.04272	100.04272
0.90000	1.26461	0.60512	0.25422	-0.75460	100.04272	100.04272
2.90000	1.26390	0.60561	0.25318	-0.75460	100.04272	100.04272
0.70000	1.26788	0.60302	0.26060	-0.75411	100.05493	100.05493
2.70000	1.25169	0.60314	0.26090	-0.75393	100.06714	100.06714
0.50000	1.27058	0.60030	0.27512	-0.75106	100.07629	100.07629
2.50000	1.25155	0.60118	0.26878	-0.75265	100.07935	100.07935
0.30000	1.25240	0.60179	0.29508	-0.74224	100.07935	100.07935
2.30000	1.25723	0.59999	0.27995	-0.74944	100.08850	100.08850
0.10000	1.25027	0.59999	0.27656	-0.75076	100.06714	100.06714
2.10000	1.25794	0.60042	0.28578	-0.74700	100.07629	100.07629
4.10000	1.26405	0.60396	0.30119	-0.73818	100.04272	100.04272
1.90000	1.27058	0.60121	0.29160	-0.74419	100.03052	100.03052
3.90000	1.25240	0.60140	0.29228	-0.74361	100.10071	100.10071
1.70000	1.26802	0.60341	0.29936	-0.73925	100.04272	100.04272
3.70000	1.25141	0.60051	0.28767	-0.74624	100.06714	100.06714
1.50000	1.25240	0.60042	0.28346	-0.74801	100.05493	100.05493
3.50000	1.27015	0.60131	0.29209	-0.74389	100.07629	100.07629
1.30000	1.26745	0.60094	0.28825	-0.74575	100.05493	100.05493
3.30000	1.27157	0.60094	0.28779	-0.74575	100.07629	100.07629
1.10000	1.25254	0.60625	0.30497	-0.73461	100.03357	100.03357
3.10000	1.27044	0.60613	0.30506	-0.73473	100.06409	100.06409
0.90000	1.25340	0.60054	0.28526	-0.74706	100.06714	100.06714
2.90000	1.25326	0.60073	0.27848	-0.74953	100.05493	100.05493
0.70000	1.25340	0.60027	0.28278	-0.74819	100.06714	100.06714
2.70000	1.25226	0.60228	0.29456	-0.74206	100.03357	100.03357
0.50000	1.26944	0.60097	0.28614	-0.74636	100.04272	100.04272
2.50000	1.25183	0.60140	0.29054	-0.74441	100.06714	100.06714
0.30000	1.26277	0.60720	0.30634	-0.73309	100.04272	100.04272
2.30000	1.26362	0.61000	0.31068	-0.72912	100.07629	100.07629
0.10000	1.25425	0.60360	0.29826	-0.73959	100.06714	100.06714
2.10000	1.26816	0.60198	0.29279	-0.74300	100.05493	100.05493
4.10000	1.26845	0.61104	0.31184	-0.72765	100.08850	100.08850
1.90000	1.27214	0.60665	0.30485	-0.73428	100.04272	100.04272
3.90000	1.25127	0.61141	0.31132	-0.72759	100.03357	100.03357
1.70000	1.27015	0.61168	0.31190	-0.72716	100.09766	100.09766
3.70000	1.27086	0.60970	0.30903	-0.73006	100.05493	100.05493
1.50000	1.25467	0.61888	0.31791	-0.71844	100.07629	100.07629
3.50000	1.26660	0.61864	0.31736	-0.71883	100.06714	100.06714
1.30000	1.27029	0.62615	0.32057	-0.71087	100.05493	100.05493
3.30000	1.25084	0.61116	0.31025	-0.72826	100.03357	100.03357
1.10000	1.26774	0.60637	0.30387	-0.73492	100.06714	100.06714
3.10000	1.26106	0.60778	0.30601	-0.73296	100.05493	100.05493
0.90000	1.25141	0.60491	0.30042	-0.73742	100.05493	100.05493
2.90000	1.25084	0.60955	0.30811	-0.73058	100.03357	100.03357
0.70000	1.26873	0.60515	0.30070	-0.73727	100.07629	100.07629
2.70000	1.26050	0.60524	0.30070	-0.73721	100.03357	100.03357
0.50000	1.27072	0.60424	0.29841	-0.73888	100.06409	100.06409
2.50000	1.26845	0.60741	0.30576	-0.73330	100.03357	100.03357
0.30000	1.27044	0.61052	0.31010	-0.72890	100.08850	100.08850
2.30000	1.25042	0.62111	0.31800	-0.71651	100.07935	100.07935
0.10000	1.25908	0.62264	0.31886	-0.71459	100.05493	100.05493
2.10000	1.26476	0.62508	0.31971	-0.71215	100.06714	100.06714
4.10000	1.26518	0.62868	0.32047	-0.70861	100.04272	100.04272
1.90000	1.25183	0.62597	0.31990	-0.71129	100.06714	100.06714
3.90000	1.27058	0.62764	0.32041	-0.70959	100.05493	100.05493
1.70000	1.26021	0.61647	0.31544	-0.72152	100.06714	100.06714
3.70000	1.27044	0.60500	0.29908	-0.73797	100.04272	100.04272
1.50000	1.25979	0.60723	0.30369	-0.73443	100.06714	100.06714
3.50000	1.26348	0.60289	0.29044	-0.74322	100.04272	100.04272
1.30000	1.25141	0.60228	0.28611	-0.74529	100.06714	100.06714
3.30000	1.25084	0.61119	0.30952	-0.72860	100.04272	100.04272
1.10000	1.25169	0.61773	0.31550	-0.72051	100.06714	100.06714
3.10000	1.26930	0.61684	0.31492	-0.72146	100.02136	100.02136
0.90000	1.25397	0.61391	0.31181	-0.72539	100.03357	100.03357
2.90000	1.26646	0.61263	0.31150	-0.72658	100.06714	100.06714
0.70000	1.25538	0.60442	0.29554	-0.73989	100.04272	100.04272
2.70000	1.26206	0.60350	0.29237	-0.74197	100.06714	100.06714
0.50000	1.26121	0.60302	0.28892	-0.74374	100.03357	100.03357
2.50000	1.26760	0.60643	0.30067	-0.73620	100.00916	100.00916
0.30000	1.26419	0.60906	0.30625	-0.73171	100.03357	100.03357
2.30000	1.25609	0.61174	0.30943	-0.72826	100.04272	100.04272
0.10000	1.24999	0.61241	0.31050	-0.72716	100.03357	100.03357
2.10000	1.25893	0.61095	0.30842	-0.72927	100.04272	100.04272
4.10000	1.26163	0.61275	0.31117	-0.72643	100.06714	100.06714
1.90000	1.26902	0.60906	0.30601	-0.73186	100.03052	100.03052
3.90000	1.25226	0.61107	0.30860	-0.72906	100.03357	100.03357
1.70000	1.26291	0.60833	0.30433	-0.73318	100.04272	100.04272
3.70000	1.26760	0.60405	0.29209	-0.74163	100.03357	100.03357
1.50000	1.26944	0.60530	0.29704	-0.73858	100.02136	100.02136
3.50000	1.27200	0.60723	0.30235	-0.73486	100.02136	100.02136
1.30000	1.26305	0.60900	0.30497	-0.73238	100.00916	100.00916
3.30000	1.25127	0.60363	0.28990	-0.74270	100.05493	100.05493
1.10000	1.25169	0.60823	0.30354	-0.73357	100.05493	100.05493
3.10000	1.25510	0.60833	0.30311	-0.73370	100.04272	100.04272
0.90000	1.26106	0.60778	0.30274	-0.73428	100.03357	100.03357
2.90000	1.25453	0.61272	0.31034	-0.72695	100.05493	100.05493
0.70000	1.24843	0.61635	0.31364	-0.72253	100.04272	100.04272
2.70000	1.24885	0.61507	0.31205	-0.72420	100.03357	100.03357
0.50000	1.25766	0.61510	0.31242	-0.72399	100.05493	100.05493
2.50000	1.26461	0.62319	0.31785	-0.71477	100.03357	100.03357
0.30000	1.24899	0.62212	0.31703	-0.71599	100.04272	100.04272
2.30000	1.25751	0.62313	0.31819	-0.71459	100.03357	100.03357
0.10000	1.26845	0.62603	0.31867	-0.71181	100.03357	100.03357
2.10000	1.25283	0.62813	0.31928	-0.70980	100.02136	100.02136
4.10000	1.24857	0.62807	0.31956	-0.70949	100.04272	100.04272
1.90000	1.25226	0.62291	0.31791	-0.71490	100.05493	100.05493
3.90000	1.26575	0.61806	0.31480	-0.72036	100.03357	100.03357
1.70000	1.26461	0.61220	0.30943	-0.72787	100.04272	100.04272
3.70000	1.25595	0.61342	0.31022	-0.72646	100.02136	100.02136
1.50000	1.24857	0.60845	0.30268	-0.73385	100.03357	100.03357
3.50000	1.26433	0.61196	0.30915	-0.72805	100.04272	100.04272
1.30000	1.25297	0.61846	0.31483	-0.72015	100.04272	100.04272
3.30000	1.25013	0.61080	0.30696	-0.73003	100.02136	100.02136
1.10000	1.24843	0.61635	0.31300	-0.72271	100.04272	100.04272
3.10000	1.26177	0.62136	0.31727	-0.71654	100.04272	100.04272
0.90000	1.26888	0.61827	0.31468	-0.72048	100.00000	100.00000
2.90000	1.26831	0.61437	0.31169	-0.72497	100.04272	100.04272
0.70000	1.25183	0.60952	0.30479	-0.73186	100.00916	100.00916
2.70000	1.26064	0.62487	0.31822	-0.71297	100.00916	100.00916
0.50000	1.25794	0.61724	0.31416	-0.72146	100.00916	100.00916
2.50000	1.27015	0.60988	0.30595	-0.73122	100.03052	100.03052
0.30000	1.26220	0.61690	0.31400	-0.72201	100.02136	100.02136
2.30000	1.24999	0.61998	0.31617	-0.71828	100.05493	100.05493
0.10000	1.26064	0.61840	0.31535	-0.71996	100.02136	100.02136
2.10000	1.25425	0.61248	0.30931	-0.72747	100.05493	100.05493
4.10000	1.24701	0.61367	0.31019	-0.72616	100.03357	100.03357
1.90000	1.26149	0.61147	0.30845	-0.72890	100.02136	100.02136
3.90000	1.25198	0.60665	0.29743	-0.73736	100.03357	100.03357
1.70000	1.25283	0.60579	0.29536	-0.73891	100.00916	100.00916
3.70000	1.26220	0.60485	0.29133	-0.74133	100.00916	100.00916
1.50000	1.25027	0.60430	0.29112	-0.74175	100.06714	100.06714
3.50000	1.24985	0.60942	0.30418	-0.73226	100.00000	100.00000
1.30000	1.26802	0.60875	0.30256	-0.73360	99.97559	99.97559
3.30000	1.26305	0.61553	0.31254	-0.72362	100.04272	100.04272
1.10000	1.24843	0.61776	0.31462	-0.72082	100.06714	100.06714
3.10000	1.24758	0.60967	0.30479	-0.73186	100.03357	100.03357
0.90000	1.26547	0.60976	0.30464	-0.73177	99.98779	99.98779
2.90000	1.26816	0.60775	0.30079	-0.73513	100.00916	100.00916
0.70000	1.26745	0.60860	0.30305	-0.73357	99.98779	99.98779
2.70000	1.25794	0.62285	0.31791	-0.71493	100.03357	100.03357
0.50000	1.26461	0.62059	0.31596	-0.71773	100.00916	100.00916
2.50000	1.25042	0.60765	0.30058	-0.73531	100.00000	100.00000
0.30000	1.24772	0.60891	0.30290	-0.73315	100.03357	100.03357
2.30000	1.25624	0.60598	0.29612	-0.73836	100.02136	100.02136
0.10000	1.24758	0.60485	0.29194	-0.74102	100.03357	100.03357
2.10000	1.24999	0.60445	0.29005	-0.74200	100.04272	100.04272
4.10000	1.24956	0.61571	0.31214	-0.72359	100.03357	100.03357
1.90000	1.26674	0.61220	0.30927	-0.72781	100.06714	100.06714
3.90000	1.25425	0.61077	0.30607	-0.73028	100.04272	100.04272
1.70000	1.26674	0.60631	0.29707	-0.73785	100.00916	100.00916
3.70000	1.26731	0.60479	0.29130	-0.74136	100.00916	100.00916
1.50000	1.26547	0.60500	0.29203	-0.74081	100.00916	100.00916
3.50000	1.25169	0.60656	0.29731	-0.73748	100.00916	100.00916
1.30000	1.26305	0.61202	0.30775	-0.72875	100.00000	100.00000
3.30000	1.26774	0.61473	0.31193	-0.72454	100.06714	100.06714
1.10000	1.24985	0.60723	0.29896	-0.73620	100.00916	100.00916
3.10000	1.24885	0.60442	0.28843	-0.74282	100.02136	100.02136
0.90000	1.26930	0.60399	0.28602	-0.74404	100.03052	100.03052
2.90000	1.25042	0.60475	0.29072	-0.74160	100.04272	100.04272
0.70000	1.25056	0.60475	0.29057	-0.74157	100.03357	100.03357
2.70000	1.25751	0.60421	0.28666	-0.74377	100.02136	100.02136
0.50000	1.25340	0.60350	0.28278	-0.74560	100.05493	100.05493
2.50000	1.26589	0.60360	0.28007	-0.74657	100.02136	100.02136
0.30000	1.26689	0.60390	0.27769	-0.74725	100.00916	100.00916
2.30000	1.25638	0.60350	0.27888	-0.74712	100.00916	100.00916
0.10000	1.24857	0.60366	0.27781	-0.74752	100.00000	100.00000
2.10000	1.25070	0.60378	0.27662	-0.74767	100.02136	100.02136
4.10000	1.25879	0.60366	0.27458	-0.74856	100.03357	100.03357
1.90000	1.24942	0.60372	0.27540	-0.74822	100.03357	100.03357
3.90000	1.25397	0.60396	0.27207	-0.74920	100.02136	100.02136
1.70000	1.26504	0.60396	0.27186	-0.74935	100.02136	100.02136
3.70000	1.25879	0.60387	0.27189	-0.74944	100.00916	100.00916
1.50000	1.25538	0.60363	0.27290	-0.74914	100.03357	100.03357
3.50000	1.26007	0.60360	0.27451	-0.74859	100.02136	100.02136
1.30000	1.25723	0.60384	0.27125	-0.74972	100.00916	100.00916
3.30000	1.24999	0.60442	0.26643	-0.75091	100.04272	100.04272
1.10000	1.26703	0.60466	0.26704	-0.75048	100.02136	100.02136
3.10000	1.27015	0.60384	0.27024	-0.75002	99.97559	99.97559
0.90000	1.25027	0.60466	0.26621	-0.75085	100.00916	100.00916
2.90000	1.24956	0.60329	0.27360	-0.74926	100.03357	100.03357
0.70000	1.26731	0.60320	0.27982	-0.74697	99.98779	99.98779
2.70000	1.26774	0.60369	0.28849	-0.74337	100.03357	100.03357
0.50000	1.26689	0.60479	0.29380	-0.74041	100.03357	100.03357
2.50000	1.25283	0.60417	0.29136	-0.74181	100.02136	100.02136
0.30000	1.26703	0.60482	0.29328	-0.74056	100.00000	100.00000
2.30000	1.26902	0.60445	0.29456	-0.74020	100.02136	100.02136
0.10000	1.25013	0.60427	0.29276	-0.74123	100.00916	100.00916
2.10000	1.24843	0.60375	0.29130	-0.74215	100.05493	100.05493
4.10000	1.25695	0.60408	0.29225	-0.74151	100.00916	100.00916
1.90000	1.26731	0.60314	0.28513	-0.74514	100.03357	100.03357
3.90000	1.25638	0.60268	0.28297	-0.74627	100.03357	100.03357
1.70000	1.26419	0.60256	0.27955	-0.74770	100.04272	100.04272
3.70000	1.24956	0.60283	0.27577	-0.74889	100.00000	100.00000
1.50000	1.26987	0.60271	0.27702	-0.74837	100.00916	100.00916
3.50000	1.26291	0.60262	0.27625	-0.74868	100.04272	100.04272
1.30000	1.26916	0.60247	0.27735	-0.74853	100.03052	100.03052
3.30000	1.25042	0.60332	0.26902	-0.75091	100.00916	100.00916
1.10000	1.27015	0.60387	0.26649	-0.75143	100.02136	100.02136
3.10000	1.25524	0.60497	0.26194	-0.75207	100.00916	100.00916
0.90000	1.26973	0.60756	0.25413	-0.75268	99.97559	99.97559
2.90000	1.26689	0.60878	0.25095	-0.75268	100.03357	100.03357
0.70000	1.24899	0.60906	0.25004	-0.75286	100.00916	100.00916
2.70000	1.26674	0.60784	0.25269	-0.75292	100.00000	100.00000
0.50000	1.26958	0.60848	0.25141	-0.75274	100.00000	100.00000
2.50000	1.25297	0.60900	0.24931	-0.75311	100.00000	100.00000
0.30000	1.25609	0.60891	0.24989	-0.75301	100.00000	100.00000
2.30000	1.27029	0.60839	0.25086	-0.75298	100.03052	100.03052
0.10000	1.26249	0.60863	0.25028	-0.75298	100.03357	100.03357
2.10000	1.26050	0.60952	0.24836	-0.75298	99.98779	99.98779
4.10000	1.26646	0.61071	0.24589	-0.75286	100.00000	100.00000
1.90000	1.27001	0.61055	0.24604	-0.75301	100.00000	100.00000
3.90000	1.26007	0.61119	0.24464	-0.75274	100.00916	100.00916
1.70000	1.25056	0.61251	0.24238	-0.75265	100.00916	100.00916
3.70000	1.25340	0.61299	0.24100	-0.75246	100.02136	100.02136
1.50000	1.25368	0.61238	0.24223	-0.75265	99.98779	99.98779
3.50000	1.26078	0.61217	0.24271	-0.75283	99.95422	99.95422
1.30000	1.26745	0.61269	0.24180	-0.75253	99.98779	99.98779
3.30000	1.25950	0.61132	0.24357	-0.75314	99.98779	99.98779
1.10000	1.25113	0.61220	0.24207	-0.75295	100.00916	100.00916
3.10000	1.26717	0.61104	0.24454	-0.75298	100.00916	100.00916
0.90000	1.26433	0.61077	0.24454	-0.75326	100.04272	100.04272
2.90000	1.26788	0.61190	0.24262	-0.75301	100.02136	100.02136
0.70000	1.24899	0.61278	0.24079	-0.75283	100.00916	100.00916
2.70000	1.26930	0.61107	0.24476	-0.75301	100.00000	100.00000
0.50000	1.25524	0.61129	0.24329	-0.75323	100.03357	100.03357
2.50000	1.25453	0.60921	0.24747	-0.75353	99.98779	99.98779
0.30000	1.25155	0.60848	0.24842	-0.75381	100.02136	100.02136
2.30000	1.25113	0.61382	0.23930	-0.75237	100.03357	100.03357
0.10000	1.25098	0.60259	0.26533	-0.75271	100.04272	100.04272
2.10000	1.26547	0.60170	0.26884	-0.75225	100.03357	100.03357
4.10000	1.26930	0.60503	0.25648	-0.75387	100.04272	100.04272
1.90000	1.25908	0.60289	0.26460	-0.75286	100.03357	100.03357
3.90000	1.25624	0.60079	0.28086	-0.74856	100.05493	100.05493
1.70000	1.25965	0.60134	0.27418	-0.75072	100.02136	100.02136
3.70000	1.27257	0.60137	0.28932	-0.74487	100.02136	100.02136
1.50000	1.25538	0.60152	0.29048	-0.74432	100.03357	100.03357
3.50000	1.25240	0.60424	0.30097	-0.73797	100.06714	100.06714
1.30000	1.25439	0.60100	0.28730	-0.74593	100.04272	100.04272
3.30000	1.25254	0.60717	0.30622	-0.73333	100.05493	100.05493
1.10000	1.25183	0.61159	0.31193	-0.72716	100.04272	100.04272
3.10000	1.25198	0.60497	0.30213	-0.73693	100.03357	100.03357
0.90000	1.26973	0.60210	0.29203	-0.74316	100.02136	100.02136
2.90000	1.26760	0.60262	0.29460	-0.74187	100.02136	100.02136
0.70000	1.26135	0.60128	0.27570	-0.74999	100.02136	100.02136
2.70000	1.25027	0.60234	0.29249	-0.74297	100.04272	100.04272
0.50000	1.25482	0.60295	0.29560	-0.74111	100.05493	100.05493
2.50000	1.25070	0.60277	0.29466	-0.74154	100.00000	100.00000
0.30000	1.27129	0.60540	0.30189	-0.73656	100.00000	100.00000
2.30000	1.25212	0.60155	0.28864	-0.74499	100.04272	100.04272
0.10000	1.25056	0.60305	0.29618	-0.74084	100.03357	100.03357
2.10000	1.26717	0.60930	0.30903	-0.73034	100.04272	100.04272
4.10000	1.25397	0.61071	0.31080	-0.72848	100.02136	100.02136
1.90000	1.25965	0.61388	0.31437	-0.72411	100.04272	100.04272
3.90000	1.25141	0.61074	0.31065	-0.72854	100.03357	100.03357
1.70000	1.26845	0.61449	0.31440	-0.72372	100.04272	100.04272
3.70000	1.25965	0.61184	0.31135	-0.72729	100.04272	100.04272
1.50000	1.26163	0.61089	0.31028	-0.72851	100.06714	100.06714
3.50000	1.25893	0.61919	0.31797	-0.71816	100.02136	100.02136
1.30000	1.27001	0.60659	0.30345	-0.73498	100.00916	100.00916
3.30000	1.26419	0.60350	0.29530	-0.74081	100.02136	100.02136
1.10000	1.25609	0.60887	0.30787	-0.73119	100.02136	100.02136
3.10000	1.27086	0.60778	0.30625	-0.73281	100.03052	100.03052
0.90000	1.26973	0.60744	0.30564	-0.73339	100.03052	100.03052
2.90000	1.25382	0.60662	0.30363	-0.73486	100.05493	100.05493
0.70000	1.26135	0.61168	0.31153	-0.72735	100.05493	100.05493
2.70000	1.25084	0.61498	0.31437	-0.72329	100.05493	100.05493
0.50000	1.25240	0.61611	0.31520	-0.72192	100.02136	100.02136
2.50000	1.27115	0.61660	0.31547	-0.72149	100.03052	100.03052
0.30000	1.26149	0.61061	0.30949	-0.72903	100.04272	100.04272
2.30000	1.25297	0.61058	0.30979	-0.72906	100.04272	100.04272
0.10000	1.26987	0.61547	0.31416	-0.72304	100.04272	100.04272
2.10000	1.25056	0.60808	0.30555	-0.73287	100.04272	100.04272
4.10000	1.25155	0.60829	0.30576	-0.73260	100.00000	100.00000
1.90000	1.27200	0.61599	0.31513	-0.72216	100.04272	100.04272
3.90000	1.27015	0.62258	0.31837	-0.71511	100.00916	100.00916
1.70000	1.26163	0.61608	0.31516	-0.72210	100.03357	100.03357
3.70000	1.26092	0.61470	0.31404	-0.72378	100.00000	100.00000
1.50000	1.26930	0.61736	0.31571	-0.72066	100.00916	100.00916
3.50000	1.26816	0.61763	0.31593	-0.72039	100.00916	100.00916
1.30000	1.25113	0.60887	0.30619	-0.73193	100.03357	100.03357
3.30000	1.25624	0.60378	0.29359	-0.74136	100.02136	100.02136
1.10000	1.25141	0.60421	0.29490	-0.74035	100.03357	100.03357
3.10000	1.26703	0.60591	0.30061	-0.73666	100.00000	100.00000
0.90000	1.26135	0.61217	0.31071	-0.72716	100.04272	100.04272
2.90000	1.26944	0.62035	0.31755	-0.71725	100.03052	100.03052
0.70000	1.25056	0.62410	0.31938	-0.71319	100.03357	100.03357
2.70000	1.26916	0.62813	0.32005	-0.70946	100.03052	100.03052
0.50000	1.25169	0.61596	0.31388	-0.72265	100.03357	100.03357
2.50000	1.26745	0.61568	0.31355	-0.72308	100.02136	100.02136
0.30000	1.26121	0.62471	0.31950	-0.71261	100.03357	100.03357
2.30000	1.26788	0.62529	0.31947	-0.71215	100.03357	100.03357
0.10000	1.26234	0.61263	0.31089	-0.72677	100.04272	100.04272
2.10000	1.26589	0.61980	0.31626	-0.71841	100.02136	100.02136
4.10000	1.26788	0.62792	0.32017	-0.70956	100.02136	100.02136
1.90000	1.26831	0.62438	0.31861	-0.71325	100.00916	100.00916
3.90000	1.26007	0.61199	0.30931	-0.72802	100.00916	100.00916
1.70000	1.25510	0.61400	0.31211	-0.72503	100.07629	100.07629
3.70000	1.26618	0.61296	0.31120	-0.72637	100.05493	100.05493
1.50000	1.26092	0.60424	0.29179	-0.74157	100.00916	100.00916
3.50000	1.25056	0.60366	0.29109	-0.74233	100.03357	100.03357
1.30000	1.25567	0.60884	0.30488	-0.73251	100.03357	100.03357
3.30000	1.25169	0.61858	0.31574	-0.71957	100.00916	100.00916
1.10000	1.26845	0.62481	0.31864	-0.71291	100.03357	100.03357
3.10000	1.25297	0.62868	0.32020	-0.70876	100.00916	100.00916
0.90000	1.24942	0.62243	0.31806	-0.71538	100.05493	100.05493
2.90000	1.26831	0.62639	0.31925	-0.71120	100.02136	100.02136
0.70000	1.25042	0.61409	0.31175	-0.72515	100.04272	100.04272
2.70000	1.27001	0.61342	0.31117	-0.72588	100.03052	100.03052
0.50000	1.25326	0.61596	0.31333	-0.72280	100.03357	100.03357
2.50000	1.26092	0.61031	0.30717	-0.73034	100.04272	100.04272
0.30000	1.26646	0.60500	0.29374	-0.74017	100.00916	100.00916
2.30000	1.25453	0.61977	0.31654	-0.71816	100.05493	100.05493
0.10000	1.27015	0.61843	0.31547	-0.71987	100.00916	100.00916
2.10000	1.24999	0.61605	0.31358	-0.72280	100.00916	100.00916
4.10000	1.26774	0.61010	0.30686	-0.73067	100.00000	100.00000
1.90000	1.25822	0.60799	0.30262	-0.73418	100.00916	100.00916
3.90000	1.25908	0.61403	0.31211	-0.72506	100.03357	100.03357
1.70000	1.26390	0.61702	0.31480	-0.72143	100.02136	100.02136
3.70000	1.24956	0.61864	0.31565	-0.71972	100.03357	100.03357
1.50000	1.26788	0.61824	0.31507	-0.72024	99.97559	99.97559
3.50000	1.24928	0.61003	0.30616	-0.73083	100.05493	100.05493
1.30000	1.26632	0.61251	0.30992	-0.72729	100.03357	100.03357
3.30000	1.26902	0.61586	0.31364	-0.72280	100.03052	100.03052
1.10000	1.26163	0.61449	0.31211	-0.72475	100.02136	100.02136
3.10000	1.25326	0.61589	0.31321	-0.72304	100.02136	100.02136
0.90000	1.24843	0.62215	0.31782	-0.71563	100.03357	100.03357
2.90000	1.25510	0.61779	0.31477	-0.72069	100.02136	100.02136
0.70000	1.26604	0.62972	0.31999	-0.70809	100.00000	100.00000
2.70000	1.24758	0.63201	0.32035	-0.70580	100.00000	100.00000
0.50000	1.26717	0.63732	0.32066	-0.70083	100.00916	100.00916
2.50000	1.25155	0.62859	0.32020	-0.70891	100.02136	100.02136
0.30000	1.25297	0.62996	0.32014	-0.70779	100.02136	100.02136
2.30000	1.25183	0.62655	0.31959	-0.71096	100.04272	100.04272
0.10000	1.24758	0.62835	0.31980	-0.70937	100.00916	100.00916
2.10000	1.26305	0.63488	0.32078	-0.70299	99.98779	99.98779
4.10000	1.26859	0.62865	0.31983	-0.70907	99.96338	99.96338
1.90000	1.26419	0.63649	0.32081	-0.70159	99.98779	99.98779
3.90000	1.26149	0.63405	0.32047	-0.70385	100.02136	100.02136
1.70000	1.24871	0.63048	0.32029	-0.70721	100.00000	100.00000
3.70000	1.26192	0.62719	0.31996	-0.71032	100.00000	100.00000
1.50000	1.26888	0.62044	0.31651	-0.71755	100.02136	100.02136
3.50000	1.24985	0.61550	0.31242	-0.72369	100.03357	100.03357
1.30000	1.26604	0.62062	0.31669	-0.71743	100.00000	100.00000
3.30000	1.26731	0.62059	0.31629	-0.71761	100.02136	100.02136
1.10000	1.26717	0.62420	0.31806	-0.71371	100.00916	100.00916
3.10000	1.24729	0.63363	0.32075	-0.70425	100.03357	100.03357
0.90000	1.24772	0.61751	0.31391	-0.72137	100.02136	100.02136
2.90000	1.25922	0.61617	0.31382	-0.72253	99.98779	99.98779
0.70000	1.25666	0.60833	0.30229	-0.73400	100.00000	100.00000
2.70000	1.26135	0.60903	0.30375	-0.73278	100.00916	100.00916
0.50000	1.26788	0.61458	0.31202	-0.72460	100.00916	100.00916
2.50000	1.24885	0.62102	0.31617	-0.71734	100.00000	100.00000
0.30000	1.24814	0.61831	0.31483	-0.72036	100.00000	100.00000
2.30000	1.25865	0.62682	0.31925	-0.71090	100.02136	100.02136
0.10000	1.24857	0.62410	0.31803	-0.71380	100.03357	100.03357
2.10000	1.25425	0.62435	0.31904	-0.71310	100.04272	100.04272
4.10000	1.25780	0.62957	0.32008	-0.70806	100.02136	100.02136
1.90000	1.25609	0.63308	0.32063	-0.70470	100.02136	100.02136
3.90000	1.26504	0.63301	0.32038	-0.70495	99.96338	99.96338
1.70000	1.24701	0.62310	0.31791	-0.71474	100.00916	100.00916
3.70000	1.24743	0.62358	0.31797	-0.71429	100.03357	100.03357
1.50000	1.25397	0.61309	0.30937	-0.72695	100.05493	100.05493
3.50000	1.26888	0.61101	0.30720	-0.72970	100.02136	100.02136
1.30000	1.25581	0.60820	0.30119	-0.73458	99.98779	99.98779
3.30000	1.26930	0.60988	0.30531	-0.73141	100.04272	100.04272
1.10000	1.24758	0.61806	0.31394	-0.72091	100.02136	100.02136
3.10000	1.26717	0.61058	0.30564	-0.73067	99.96338	99.96338
0.90000	1.24899	0.61177	0.30686	-0.72912	100.00000	100.00000
2.90000	1.26831	0.61565	0.31239	-0.72362	100.04272	100.04272
0.70000	1.26845	0.62505	0.31806	-0.71297	100.00000	100.00000
2.70000	1.26192	0.63466	0.32057	-0.70327	100.00916	100.00916
0.50000	1.25922	0.63182	0.31977	-0.70626	99.98779	99.98779
2.50000	1.26646	0.61281	0.30900	-0.72747	100.00916	100.00916
0.30000	1.24814	0.60546	0.29249	-0.74032	100.02136	100.02136
2.30000	1.26973	0.60451	0.28666	-0.74325	99.98779	99.98779
0.10000	1.26461	0.60421	0.28645	-0.74368	100.00916	100.00916
2.10000	1.26476	0.60457	0.28651	-0.74340	99.96338	99.96338
4.10000	1.26788	0.60442	0.28727	-0.74310	99.98779	99.98779
1.90000	1.26135	0.60436	0.28553	-0.74386	99.96338	99.96338
3.90000	1.26774	0.60408	0.28349	-0.74496	100.00000	100.00000
1.70000	1.24999	0.60381	0.27857	-0.74691	100.03357	100.03357
3.70000	1.25751	0.60396	0.27409	-0.74862	99.98779	99.98779
1.50000	1.25042	0.60414	0.27494	-0.74801	100.02136	100.02136
3.50000	1.25681	0.60381	0.27808	-0.74712	100.00000	100.00000
1.30000	1.25851	0.60381	0.27894	-0.74688	99.97559	99.97559
3.30000	1.26774	0.60393	0.27958	-0.74660	99.97559	99.97559
1.10000	1.26589	0.60360	0.27754	-0.74749	100.02136	100.02136
3.10000	1.24928	0.60375	0.27467	-0.74853	100.00916	100.00916
0.90000	1.26518	0.60393	0.27302	-0.74902	100.03357	100.03357
2.90000	1.26731	0.60393	0.27326	-0.74889	100.00916	100.00916
0.70000	1.25822	0.60390	0.27470	-0.74831	99.97559	99.97559
2.70000	1.26419	0.60356	0.28068	-0.74633	100.00000	100.00000
0.50000	1.26802	0.60378	0.27311	-0.74889	100.00916	100.00916
2.50000	1.25482	0.60472	0.26731	-0.75033	100.00000	100.00000
0.30000	1.26263	0.60555	0.26359	-0.75097	99.98779	99.98779
2.30000	1.26106	0.60375	0.27149	-0.74963	100.00916	100.00916
0.10000	1.26674	0.60353	0.27583	-0.74828	99.98779	99.98779
2.10000	1.25837	0.60479	0.26594	-0.75079	100.00000	100.00000
4.10000	1.26220	0.60375	0.27223	-0.74941	100.00000	100.00000
1.90000	1.25950	0.60363	0.28510	-0.74477	99.98779	99.98779
3.90000	1.26958	0.60323	0.28422	-0.74535	100.00916	100.00916
1.70000	1.26888	0.60314	0.28324	-0.74584	100.00000	100.00000
3.70000	1.25865	0.60305	0.28239	-0.74612	100.00000	100.00000
1.50000	1.24942	0.60396	0.29136	-0.74187	100.00916	100.00916
3.50000	1.24999	0.60485	0.29426	-0.74001	100.00000	100.00000
1.30000	1.26902	0.60454	0.29325	-0.74081	100.02136	100.02136
3.30000	1.24956	0.60436	0.29313	-0.74096	100.03357	100.03357
1.10000	1.25737	0.60375	0.28877	-0.74306	100.02136	100.02136
3.10000	1.25226	0.60274	0.28007	-0.74734	100.02136	100.02136
0.90000	1.26902	0.60308	0.28208	-0.74630	100.00000	100.00000
2.90000	1.25056	0.60283	0.28343	-0.74596	100.03357	100.03357
0.70000	1.25794	0.60289	0.28056	-0.74706	100.00916	100.00916
2.70000	1.25553	0.60244	0.27909	-0.74792	100.04272	100.04272
0.50000	1.25567	0.60335	0.27042	-0.75042	100.00000	100.00000
2.50000	1.25865	0.60408	0.26560	-0.75146	100.00000	100.00000
0.30000	1.25056	0.60579	0.25947	-0.75231	100.00916	100.00916
2.30000	1.26916	0.60646	0.25788	-0.75219	99.97559	99.97559
0.10000	1.25027	0.60695	0.25584	-0.75265	99.95422	99.95422
2.10000	1.26589	0.60701	0.25556	-0.75265	99.98779	99.98779
4.10000	1.26916	0.60768	0.25303	-0.75292	100.02136	100.02136
1.90000	1.27015	0.60762	0.25352	-0.75280	100.00916	100.00916
3.90000	1.26689	0.60680	0.25559	-0.75265	100.02136	100.02136
1.70000	1.26405	0.60695	0.25529	-0.75280	100.00916	100.00916
3.70000	1.25169	0.60674	0.25523	-0.75286	100.03357	100.03357
1.50000	1.25013	0.60762	0.25309	-0.75304	99.98779	99.98779
3.50000	1.25198	0.60903	0.25001	-0.75292	100.00916	100.00916
1.30000	1.25865	0.60991	0.24760	-0.75295	100.00916	100.00916
3.30000	1.26419	0.61028	0.24708	-0.75277	100.02136	100.02136
1.10000	1.26873	0.60988	0.24787	-0.75277	100.02136	100.02136
3.10000	1.25354	0.61034	0.24665	-0.75280	100.00916	100.00916
0.90000	1.26745	0.61064	0.24635	-0.75274	99.97559	99.97559
2.90000	1.26532	0.60994	0.24689	-0.75314	100.00000	100.00000
0.70000	1.26149	0.61025	0.24662	-0.75295	100.02136	100.02136
2.70000	1.25780	0.61028	0.24558	-0.75320	100.00916	100.00916
0.50000	1.26703	0.61126	0.24433	-0.75292	100.00916	100.00916
2.50000	1.25070	0.61141	0.24403	-0.75283	100.00000	100.00000
0.30000	1.26930	0.61101	0.24519	-0.75277	99.97559	99.97559
2.30000	1.25084	0.61214	0.24317	-0.75249	100.00916	100.00916
0.10000	1.26646	0.61394	0.23963	-0.75219	99.98779	99.98779
2.10000	1.24942	0.61382	0.23957	-0.75234	99.97559	99.97559
4.10000	1.25368	0.61458	0.23862	-0.75207	100.00916	100.00916
1.90000	1.26689	0.61263	0.24210	-0.75246	99.97559	99.97559
3.90000	1.25751	0.61385	0.23936	-0.75234	99.98779	99.98779
1.70000	1.26433	0.61296	0.24085	-0.75274	100.00000	100.00000
3.70000	1.25127	0.61473	0.23762	-0.75225	99.98779	99.98779
1.50000	1.25737	0.60552	0.25629	-0.75359	100.02136	100.02136
3.50000	1.26802	0.61016	0.24622	-0.75323	100.00916	100.00916
1.30000	1.25538	0.60738	0.25150	-0.75375	100.00000	100.00000
3.30000	1.27086	0.60549	0.25602	-0.75362	100.00916	100.00916
1.10000	1.25382	0.60143	0.27522	-0.75018	100.00916	100.00916
3.10000	1.25666	0.60176	0.27097	-0.75152	99.98779	99.98779
0.90000	1.25624	0.60118	0.27494	-0.75036	100.03357	100.03357
2.90000	1.26476	0.60308	0.26463	-0.75256	100.02136	100.02136
0.70000	1.26518	0.60103	0.27635	-0.75008	100.02136	100.02136
2.70000	1.25212	0.60088	0.28266	-0.74786	100.04272	100.04272
0.50000	1.25411	0.60350	0.29691	-0.74013	100.00916	100.00916
2.50000	1.25212	0.60738	0.30668	-0.73293	100.05493	100.05493
0.30000	1.27001	0.60360	0.29853	-0.73931	100.03052	100.03052
2.30000	1.25183	0.60741	0.30595	-0.73327	100.03357	100.03357
0.10000	1.25198	0.61855	0.31751	-0.71883	100.04272	100.04272
2.10000	1.25141	0.60607	0.30360	-0.73528	100.03357	100.03357
4.10000	1.27129	0.60872	0.30830	-0.73110	100.04272	100.04272
1.90000	1.26036	0.61016	0.31001	-0.72909	100.04272	100.04272
3.90000	1.25411	0.61409	0.31446	-0.72408	100.02136	100.02136
1.70000	1.26845	0.60417	0.29850	-0.73904	99.98779	99.98779
3.70000	1.26745	0.61000	0.31034	-0.72915	100.04272	100.04272
1.50000	1.25993	0.61516	0.31590	-0.72240	100.03357	100.03357
3.50000	1.26973	0.61098	0.31117	-0.72805	100.05493	100.05493
1.30000	1.26461	0.60305	0.29496	-0.74114	100.00916	100.00916
3.30000	1.26249	0.60152	0.28547	-0.74627	100.00000	100.00000
1.10000	1.26433	0.60677	0.30454	-0.73428	100.02136	100.02136
3.10000	1.27129	0.61348	0.31367	-0.72485	100.03052	100.03052
0.90000	1.25254	0.61400	0.31404	-0.72427	100.02136	100.02136
2.90000	1.25326	0.61415	0.31413	-0.72420	100.02136	100.02136
0.70000	1.25056	0.61629	0.31611	-0.72140	100.04272	100.04272
2.70000	1.27086	0.60698	0.30534	-0.73376	100.02136	100.02136
0.50000	1.26604	0.61101	0.31117	-0.72799	100.06714	100.06714
2.50000	1.25354	0.61107	0.31114	-0.72790	100.05493	100.05493
0.30000	1.26234	0.61400	0.31397	-0.72439	100.04272	100.04272
2.30000	1.26859	0.61428	0.31394	-0.72417	100.03357	100.03357
0.10000	1.26831	0.61342	0.31370	-0.72503	100.03357	100.03357
2.10000	1.25240	0.61745	0.31623	-0.72030	100.04272	100.04272
4.10000	1.24970	0.62120	0.31864	-0.71596	100.05493	100.05493
1.90000	1.25240	0.62270	0.31959	-0.71422	100.04272	100.04272
3.90000	1.24985	0.62044	0.31819	-0.71685	100.05493	100.05493
1.70000	1.26277	0.62090	0.31883	-0.71630	100.04272	100.04272
3.70000	1.24928	0.62487	0.32008	-0.71215	100.04272	100.04272
1.50000	1.25269	0.62386	0.31990	-0.71322	100.00916	100.00916
3.50000	1.25510	0.61031	0.30918	-0.72945	100.02136	100.02136
1.30000	1.25354	0.60982	0.30793	-0.73037	99.98779	99.98779
3.30000	1.27044	0.61232	0.31162	-0.72677	100.07629	100.07629
1.10000	1.25638	0.61098	0.30927	-0.72881	100.02136	100.02136
3.10000	1.26632	0.61147	0.31080	-0.72781	100.04272	100.04272
0.90000	1.26376	0.62395	0.31993	-0.71319	100.04272	100.04272
2.90000	1.26036	0.61928	0.31770	-0.71819	100.02136	100.02136
0.70000	1.26888	0.60918	0.30799	-0.73080	100.06714	100.06714
2.70000	1.25681	0.62206	0.31916	-0.71502	100.04272	100.04272
0.50000	1.25354	0.62499	0.31990	-0.71218	100.05493	100.05493
2.50000	1.25113	0.61904	0.31697	-0.71880	100.04272	100.04272
0.30000	1.25169	0.60924	0.30680	-0.73147	99.98779	99.98779
2.30000	1.25169	0.62545	0.32017	-0.71157	100.06714	100.06714
0.10000	1.26177	0.62392	0.31935	-0.71331	100.04272	100.04272
2.10000	1.26731	0.61950	0.31703	-0.71819	100.00916	100.00916
4.10000	1.25581	0.62587	0.31999	-0.71126	100.03357	100.03357
1.90000	1.25283	0.61495	0.31324	-0.72384	100.05493	100.05493
3.90000	1.26532	0.60527	0.29823	-0.73821	100.00916	100.00916
1.70000	1.26689	0.61083	0.30927	-0.72909	100.02136	100.02136
3.70000	1.26774	0.61773	0.31538	-0.72048	99.98779	99.98779
1.50000	1.25326	0.61998	0.31715	-0.71780	100.02136	100.02136
3.50000	1.27015	0.61650	0.31462	-0.72201	100.00000	100.00000
1.30000	1.25581	0.61779	0.31629	-0.71996	100.03357	100.03357
3.30000	1.25240	0.62319	0.31910	-0.71404	100.05493	100.05493
1.10000	1.26845	0.62395	0.31889	-0.71371	100.00916	100.00916
3.10000	1.26973	0.61278	0.31132	-0.72643	100.05493	100.05493
0.90000	1.26973	0.61501	0.31315	-0.72381	100.02136	100.02136
2.90000	1.25084	0.61440	0.31263	-0.72457	100.00916	100.00916
0.70000	1.25595	0.61562	0.31376	-0.72308	100.02136	100.02136
2.70000	1.27058	0.60952	0.30625	-0.73147	100.00000	100.00000
0.50000	1.25382	0.61388	0.31236	-0.72506	100.02136	100.02136
2.50000	1.26405	0.62337	0.31895	-0.71407	100.00916	100.00916
0.30000	1.26660	0.61391	0.31266	-0.72488	100.04272	100.04272
2.30000	1.25382	0.61293	0.31101	-0.72640	100.03357	100.03357
0.10000	1.25794	0.62020	0.31721	-0.71773	100.00916	100.00916
2.10000	1.24999	0.62429	0.31883	-0.71322	100.03357	100.03357
4.10000	1.25822	0.61937	0.31669	-0.71853	100.00916	100.00916
1.90000	1.25254	0.61599	0.31376	-0.72277	100.06714	100.06714
3.90000	1.24956	0.63173	0.32109	-0.70583	100.00916	100.00916
1.70000	1.26717	0.61815	0.31587	-0.71996	100.05493	100.05493
3.70000	1.25169	0.61647	0.31422	-0.72207	100.03357	100.03357
1.50000	1.25340	0.62142	0.31727	-0.71645	100.02136	100.02136
3.50000	1.25198	0.61547	0.31281	-0.72344	100.03357	100.03357
1.30000	1.25013	0.60643	0.29896	-0.73696	100.00916	100.00916
3.30000	1.26036	0.60417	0.29157	-0.74163	100.05493	100.05493
1.10000	1.26234	0.60341	0.28819	-0.74358	100.03357	100.03357
3.10000	1.26461	0.60372	0.28855	-0.74331	100.02136	100.02136
0.90000	1.25027	0.60390	0.29075	-0.74227	100.02136	100.02136
2.90000	1.25084	0.60637	0.29969	-0.73663	100.00000	100.00000
0.70000	1.26604	0.61501	0.31318	-0.72378	100.05493	100.05493
2.70000	1.26135	0.62340	0.31834	-0.71432	100.03357	100.03357
0.50000	1.25311	0.62593	0.31980	-0.71145	100.03357	100.03357
2.50000	1.26234	0.61693	0.31428	-0.72161	100.03357	100.03357
0.30000	1.24928	0.61394	0.31141	-0.72539	100.05493	100.05493
2.30000	1.26632	0.62062	0.31690	-0.71743	100.00000	100.00000
0.10000	1.26816	0.63128	0.32047	-0.70647	100.00916	100.00916
2.10000	1.25382	0.62218	0.31761	-0.71572	100.03357	100.03357
4.10000	1.26078	0.61147	0.30821	-0.72897	100.00916	100.00916
1.90000	1.25084	0.60509	0.29487	-0.73968	99.97559	99.97559
3.90000	1.26831	0.60869	0.30387	-0.73309	99.98779	99.98779
1.70000	1.24985	0.61907	0.31556	-0.71938	100.00916	100.00916
3.70000	1.26149	0.60976	0.30592	-0.73122	99.98779	99.98779
1.50000	1.25027	0.61721	0.31437	-0.72143	100.00916	100.00916
3.50000	1.26376	0.61171	0.30918	-0.72832	100.04272	100.04272
1.30000	1.25240	0.60793	0.30247	-0.73415	99.98779	99.98779
3.30000	1.26944	0.60878	0.30412	-0.73275	100.00916	100.00916
1.10000	1.25240	0.60781	0.30180	-0.73464	99.98779	99.98779
3.10000	1.25411	0.60967	0.30570	-0.73141	100.00000	100.00000
0.90000	1.25695	0.61950	0.31632	-0.71859	100.04272	100.04272
2.90000	1.26788	0.63115	0.32011	-0.70666	99.97559	99.97559
0.70000	1.26177	0.61617	0.31352	-0.72271	100.00916	100.00916
2.70000	1.25056	0.61162	0.30827	-0.72866	100.00916	100.00916
0.50000	1.26831	0.61525	0.31281	-0.72372	100.03357	100.03357
2.50000	1.24985	0.61565	0.31294	-0.72350	100.00000	100.00000
0.30000	1.25269	0.61342	0.31111	-0.72604	100.02136	100.02136
2.30000	1.26348	0.62044	0.31687	-0.71755	100.00916	100.00916
0.10000	1.26845	0.62532	0.31877	-0.71245	100.00916	100.00916
2.10000	1.25766	0.61092	0.30744	-0.72961	100.02136	100.02136
4.10000	1.26036	0.61577	0.31309	-0.72329	100.02136	100.02136
1.90000	1.25254	0.60793	0.30149	-0.73470	99.98779	99.98779
3.90000	1.25553	0.60585	0.29603	-0.73855	100.00000	100.00000
1.70000	1.25113	0.61254	0.30900	-0.72759	99.97559	99.97559
3.70000	1.25311	0.62099	0.31693	-0.71715	100.02136	100.02136
1.50000	1.26604	0.61748	0.31458	-0.72115	100.03357	100.03357
3.50000	1.25624	0.62246	0.31816	-0.71511	100.02136	100.02136
1.30000	1.25198	0.62264	0.31773	-0.71523	100.04272	100.04272
3.30000	1.26674	0.61180	0.30851	-0.72848	100.04272	100.04272
1.10000	1.24956	0.61571	0.31275	-0.72341	100.02136	100.02136
3.10000	1.26802	0.62282	0.31770	-0.71508	99.98779	99.98779
0.90000	1.26589	0.62380	0.31803	-0.71404	99.98779	99.98779
2.90000	1.24985	0.61895	0.31538	-0.71953	100.00916	100.00916
0.70000	1.26504	0.62511	0.31816	-0.71285	100.00000	100.00000
2.70000	1.24814	0.60894	0.30357	-0.73290	100.04272	100.04272
0.50000	1.25297	0.60518	0.29289	-0.74041	99.98779	99.98779
2.50000	1.24786	0.61000	0.30561	-0.73128	99.98779	99.98779
0.30000	1.25567	0.60765	0.30006	-0.73559	100.02136	100.02136
2.30000	1.25411	0.60772	0.30049	-0.73525	100.00916	100.00916
0.10000	1.25297	0.60759	0.30052	-0.73525	100.02136	100.02136
2.10000	1.24800	0.60790	0.30067	-0.73495	99.98779	99.98779
4.10000	1.26958	0.60540	0.29414	-0.73977	99.96643	99.96643
1.90000	1.25169	0.60414	0.28858	-0.74285	100.02136	100.02136
3.90000	1.24942	0.60411	0.28739	-0.74340	99.97559	99.97559
1.70000	1.26575	0.60399	0.28559	-0.74422	99.97559	99.97559
3.70000	1.25198	0.60366	0.28535	-0.74456	99.98779	99.98779
1.50000	1.25837	0.60360	0.28416	-0.74511	99.96338	99.96338
3.50000	1.27015	0.60372	0.28169	-0.74590	99.96643	99.96643
1.30000	1.25595	0.60350	0.28114	-0.74627	99.97559	99.97559
3.30000	1.26888	0.60366	0.28224	-0.74575	100.00916	100.00916
1.10000	1.26802	0.60356	0.27885	-0.74709	99.97559	99.97559
3.10000	1.24871	0.60344	0.27604	-0.74819	100.00916	100.00916
0.90000	1.25425	0.60381	0.27381	-0.74880	100.00916	100.00916
2.90000	1.24956	0.60353	0.27702	-0.74786	100.00916	100.00916
0.70000	1.26845	0.60338	0.27689	-0.74801	99.98779	99.98779
2.70000	1.26902	0.60326	0.27790	-0.74761	100.00000	100.00000
0.50000	1.25482	0.60311	0.27921	-0.74731	100.02136	100.02136
2.50000	1.25709	0.60295	0.27631	-0.74853	100.02136	100.02136
0.30000	1.25013	0.60372	0.27094	-0.74984	100.02136	100.02136
2.30000	1.25354	0.60375	0.27012	-0.75024	100.00000	100.00000
0.10000	1.25581	0.60475	0.26499	-0.75115	100.00916	100.00916
2.10000	1.25482	0.60723	0.25590	-0.75225	100.00000	100.00000
4.10000	1.26902	0.60482	0.26518	-0.75112	99.98779	99.98779
1.90000	1.26305	0.60381	0.26997	-0.75024	99.97559	99.97559
3.90000	1.25127	0.60353	0.28886	-0.74322	100.03357	100.03357
1.70000	1.26348	0.60488	0.29588	-0.73952	100.00000	100.00000
3.70000	1.25965	0.60540	0.29731	-0.73836	99.98779	99.98779
1.50000	1.25155	0.60601	0.29920	-0.73721	100.03357	100.03357
3.50000	1.26930	0.60613	0.30000	-0.73669	100.02136	100.02136
1.30000	1.24985	0.60625	0.29978	-0.73684	99.97559	99.97559
3.30000	1.27015	0.60393	0.29408	-0.74093	99.98779	99.98779
1.10000	1.25368	0.60527	0.29817	-0.73815	100.05493	100.05493
3.10000	1.26320	0.60363	0.29020	-0.74276	99.96338	99.96338
0.90000	1.27129	0.60335	0.29145	-0.74236	100.00000	100.00000
2.90000	1.25453	0.60280	0.28632	-0.74490	100.00000	100.00000
0.70000	1.25240	0.60265	0.28745	-0.74456	100.04272	100.04272
2.70000	1.25922	0.60244	0.27784	-0.74831	100.02136	100.02136
0.50000	1.27001	0.60253	0.27427	-0.74960	99.96643	99.96643
2.50000	1.26504	0.60237	0.27775	-0.74847	100.02136	100.02136
0.30000	1.25226	0.60195	0.28040	-0.74776	100.00916	100.00916
2.30000	1.26348	0.60305	0.26991	-0.75076	100.02136	100.02136
0.10000	1.25922	0.60460	0.26246	-0.75213	100.00000	100.00000
2.10000	1.25879	0.60662	0.25614	-0.75277	99.98779	99.98779
4.10000	1.26930	0.60662	0.25590	-0.75277	99.97559	99.97559
1.90000	1.25851	0.60598	0.25678	-0.75298	100.00916	100.00916
3.90000	1.25098	0.60524	0.25913	-0.75277	100.03357	100.03357
1.70000	1.24970	0.60414	0.26276	-0.75243	100.00000	100.00000
3.70000	1.26973	0.60439	0.26136	-0.75274	100.02136	100.02136
1.50000	1.24970	0.60628	0.25636	-0.75295	99.98779	99.98779
3.50000	1.24999	0.60793	0.25147	-0.75323	100.00916	100.00916
1.30000	1.27086	0.60784	0.25163	-0.75323	100.00000	100.00000
3.30000	1.26930	0.60848	0.25034	-0.75314	99.98779	99.98779
1.10000	1.25751	0.60894	0.24827	-0.75347	99.98779	99.98779
3.10000	1.26930	0.60884	0.24955	-0.75323	99.98779	99.98779
0.90000	1.25865	0.60887	0.24900	-0.75332	99.98779	99.98779
2.90000	1.25056	0.60912	0.24805	-0.75332	100.00000	100.00000
0.70000	1.25453	0.60964	0.24659	-0.75341	99.98779	99.98779
2.70000	1.26618	0.60994	0.24674	-0.75323	100.00916	100.00916
0.50000	1.25482	0.60982	0.24650	-0.75335	100.00000	100.00000
2.50000	1.26873	0.60921	0.24793	-0.75338	100.02136	100.02136
0.30000	1.26291	0.61022	0.24543	-0.75332	100.00916	100.00916
2.30000	1.25510	0.61046	0.24494	-0.75332	100.00916	100.00916
0.10000	1.25141	0.61095	0.24421	-0.75314	100.00916	100.00916
2.10000	1.26149	0.61177	0.24293	-0.75289	99.98779	99.98779
4.10000	1.25609	0.61214	0.24232	-0.75280	99.96338	99.96338
1.90000	1.25183	0.61220	0.24186	-0.75298	99.98779	99.98779
3.90000	1.27001	0.61214	0.24207	-0.75283	100.02136	100.02136
1.70000	1.25212	0.61193	0.24192	-0.75311	99.98779	99.98779
3.70000	1.26447	0.61037	0.24482	-0.75341	100.00000	100.00000
1.50000	1.26831	0.60967	0.24659	-0.75344	100.00916	100.00916
3.50000	1.25340	0.61037	0.24485	-0.75350	100.00000	100.00000
1.30000	1.25354	0.61046	0.24473	-0.75344	99.97559	99.97559
3.30000	1.26831	0.60985	0.24589	-0.75344	100.00000	100.00000
1.10000	1.25226	0.61055	0.24390	-0.75359	100.00000	100.00000
3.10000	1.25382	0.61281	0.24033	-0.75289	100.00000	100.00000
0.90000	1.25794	0.61376	0.23911	-0.75262	99.96338	99.96338
2.90000	1.26731	0.61348	0.23951	-0.75253	100.03357	100.03357
0.70000	1.26745	0.61147	0.24265	-0.75326	100.00916	100.00916
2.70000	1.25183	0.61040	0.24433	-0.75362	99.95422	99.95422
0.50000	1.25382	0.60683	0.25086	-0.75433	100.02136	100.02136
2.50000	1.25070	0.60121	0.27030	-0.75210	100.03357	100.03357
0.30000	1.25453	0.60228	0.26447	-0.75341	100.05493	100.05493
2.30000	1.26646	0.60039	0.27668	-0.75045	100.02136	100.02136
0.10000	1.27129	0.60457	0.25724	-0.75399	100.00000	100.00000
2.10000	1.26177	0.60067	0.28471	-0.74715	100.00916	100.00916
4.10000	1.26916	0.60155	0.29411	-0.74276	100.05493	100.05493
1.90000	1.25595	0.60393	0.30103	-0.73821	100.02136	100.02136
3.90000	1.25311	0.60128	0.27039	-0.75210	100.02136	100.02136
1.70000	1.25666	0.60073	0.27372	-0.75124	100.04272	100.04272
3.70000	1.25567	0.60674	0.30714	-0.73333	100.04272	100.04272
1.50000	1.25808	0.60042	0.27921	-0.74947	100.02136	100.02136
3.50000	1.26447	0.60112	0.27134	-0.75188	100.02136	100.02136
1.30000	1.26916	0.60103	0.27073	-0.75198	100.02136	100.02136
3.30000	1.25269	0.60158	0.26795	-0.75271	100.02136	100.02136
1.10000	1.25709	0.60088	0.28724	-0.74618	100.00000	100.00000
3.10000	1.25183	0.60317	0.29899	-0.73952	100.04272	100.04272
0.90000	1.25709	0.60115	0.29005	-0.74471	100.05493	100.05493
2.90000	1.26263	0.60311	0.29939	-0.73946	100.04272	100.04272
0.70000	1.27129	0.61126	0.31285	-0.72710	100.03052	100.03052
2.70000	1.25851	0.61879	0.31889	-0.71807	100.04272	100.04272
0.50000	1.25822	0.61397	0.31556	-0.72365	100.05493	100.05493
2.50000	1.26774	0.61599	0.31657	-0.72143	100.06714	100.06714
0.30000	1.25127	0.61895	0.31800	-0.71838	100.04272	100.04272
2.30000	1.26461	0.61425	0.31553	-0.72344	100.03357	100.03357
0.10000	1.25879	0.61248	0.31333	-0.72582	100.06714	100.06714
2.10000	1.25127	0.61483	0.31550	-0.72292	100.07935	100.07935
4.10000	1.25269	0.60903	0.30931	-0.73040	100.04272	100.04272
1.90000	1.27200	0.60604	0.30461	-0.73498	100.03052	100.03052
3.90000	1.25908	0.61498	0.31547	-0.72283	100.04272	100.04272
1.70000	1.25169	0.61690	0.31669	-0.72060	100.06714	100.06714
3.70000	1.26348	0.61794	0.31742	-0.71947	100.00916	100.00916
1.50000	1.25453	0.61916	0.31834	-0.71801	100.02136	100.02136
3.50000	1.25382	0.61660	0.31660	-0.72088	100.07629	100.07629
1.30000	1.25425	0.61763	0.31770	-0.71963	100.02136	100.02136
3.30000	1.27072	0.61000	0.31010	-0.72921	100.07629	100.07629
1.10000	1.26731	0.61293	0.31382	-0.72527	100.04272	100.04272
3.10000	1.26845	0.61965	0.31849	-0.71743	100.00916	100.00916
0.90000	1.27058	0.61104	0.31150	-0.72796	100.02136	100.02136
2.90000	1.25439	0.60805	0.30638	-0.73260	100.00000	100.00000
0.70000	1.25042	0.61043	0.31022	-0.72881	100.00916	100.00916
2.70000	1.26490	0.61962	0.31855	-0.71743	100.00000	100.00000
0.50000	1.26958	0.62322	0.31922	-0.71404	100.02136	100.02136
2.50000	1.26660	0.61559	0.31535	-0.72231	100.04272	100.04272
0.30000	1.25169	0.62297	0.32005	-0.71392	100.04272	100.04272
2.30000	1.26618	0.60921	0.30833	-0.73089	100.00916	100.00916
0.10000	1.25467	0.60485	0.29954	-0.73791	100.06714	100.06714
2.10000	1.26206	0.60454	0.29844	-0.73870	100.02136	100.02136
4.10000	1.26177	0.60924	0.30830	-0.73067	100.00916	100.00916
1.90000	1.25851	0.60427	0.29765	-0.73919	100.00000	100.00000
3.90000	1.25524	0.60448	0.29850	-0.73870	100.00916	100.00916
1.70000	1.26036	0.61055	0.31022	-0.72893	100.04272	100.04272
3.70000	1.26660	0.60820	0.30702	-0.73208	100.02136	100.02136
1.50000	1.25169	0.60695	0.30381	-0.73443	100.02136	100.02136
3.50000	1.25169	0.60781	0.30491	-0.73336	100.02136	100.02136
1.30000	1.27015	0.61055	0.31016	-0.72875	100.03052	100.03052
3.30000	1.27157	0.60949	0.30839	-0.73052	100.04272	100.04272
1.10000	1.25141	0.61452	0.31437	-0.72365	100.04272	100.04272
3.10000	1.25169	0.61208	0.31187	-0.72677	100.04272	100.04272
0.90000	1.25169	0.61715	0.31623	-0.72069	100.03357	100.03357
2.90000	1.25254	0.61248	0.31205	-0.72643	100.00916	100.00916
0.70000	1.26674	0.61510	0.31468	-0.72311	99.98779	99.98779
2.70000	1.25056	0.61892	0.31712	-0.71868	100.00000	100.00000
0.50000	1.25027	0.61974	0.31837	-0.71746	100.05493	100.05493
2.50000	1.26674	0.62676	0.32051	-0.71044	100.00916	100.00916
0.30000	1.26263	0.62456	0.31999	-0.71252	100.02136	100.02136
2.30000	1.26703	0.62795	0.32090	-0.70907	100.02136	100.02136
0.10000	1.25467	0.61403	0.31336	-0.72448	100.04272	100.04272
2.10000	1.25070	0.60625	0.30226	-0.73568	100.00916	100.00916
4.10000	1.27058	0.61504	0.31455	-0.72317	100.03052	100.03052
1.90000	1.26092	0.61351	0.31330	-0.72506	100.00916	100.00916
3.90000	1.26149	0.60509	0.29841	-0.73824	99.98779	99.98779
1.70000	1.26717	0.60671	0.30354	-0.73476	100.03357	100.03357
3.70000	1.25027	0.61458	0.31343	-0.72402	100.03357	100.03357
1.50000	1.25595	0.62053	0.31828	-0.71685	100.02136	100.02136
3.50000	1.26433	0.62484	0.31980	-0.71249	100.00000	100.00000
1.30000	1.25979	0.61058	0.30921	-0.72915	100.06714	100.06714
3.30000	1.26390	0.61208	0.31150	-0.72698	100.05493	100.05493
1.10000	1.26149	0.61541	0.31431	-0.72292	100.04272	100.04272
3.10000	1.25127	0.62185	0.31843	-0.71551	100.04272	100.04272
0.90000	1.26760	0.62169	0.31819	-0.71593	100.00000	100.00000
2.90000	1.25482	0.61110	0.30952	-0.72857	100.03357	100.03357
0.70000	1.25127	0.60671	0.30268	-0.73525	100.00916	100.00916
2.70000	1.25056	0.60942	0.30711	-0.73107	100.03357	100.03357
0.50000	1.26263	0.60494	0.29701	-0.73898	100.00916	100.00916
2.50000	1.25127	0.60689	0.30201	-0.73525	99.97559	99.97559
0.30000	1.25425	0.60726	0.30342	-0.73449	100.00000	100.00000
2.30000	1.26930	0.60683	0.30296	-0.73507	100.02136	100.02136
0.10000	1.26816	0.61116	0.30985	-0.72848	100.00916	100.00916
2.10000	1.25127	0.61074	0.30915	-0.72915	99.98779	99.98779
4.10000	1.25283	0.61809	0.31617	-0.71987	100.03357	100.03357
1.90000	1.26390	0.60891	0.30610	-0.73189	100.02136	100.02136
3.90000	1.26419	0.60768	0.30372	-0.73406	100.00916	100.00916
1.70000	1.26433	0.60781	0.30461	-0.73339	100.02136	100.02136
3.70000	1.27072	0.60680	0.30213	-0.73525	100.04272	100.04272
1.50000	1.26902	0.60768	0.30403	-0.73370	100.02136	100.02136
3.50000	1.26802	0.61397	0.31260	-0.72491	100.02136	100.02136
1.30000	1.24928	0.61266	0.31111	-0.72671	100.03357	100.03357
3.30000	1.26163	0.61763	0.31581	-0.72045	100.03357	100.03357
1.10000	1.25113	0.61397	0.31242	-0.72488	100.07935	100.07935
3.10000	1.26717	0.60787	0.30396	-0.73360	100.00000	100.00000
0.90000	1.26121	0.61074	0.30885	-0.72927	100.02136	100.02136
2.90000	1.25254	0.60848	0.30473	-0.73290	100.00916	100.00916
0.70000	1.25084	0.60961	0.30622	-0.73125	100.02136	100.02136
2.70000	1.25425	0.60872	0.30573	-0.73217	100.02136	100.02136
0.50000	1.26589	0.61318	0.31181	-0.72597	100.04272	100.04272
2.50000	1.24942	0.60720	0.30158	-0.73513	100.02136	100.02136
0.30000	1.25666	0.60814	0.30390	-0.73351	99.98779	99.98779
2.30000	1.26902	0.60457	0.29518	-0.74004	99.97559	99.97559
0.10000	1.25212	0.60292	0.28492	-0.74523	100.06714	100.06714
2.10000	1.27001	0.60274	0.28315	-0.74612	99.98779	99.98779
4.10000	1.25553	0.60427	0.29252	-0.74136	100.00916	100.00916
1.90000	1.26447	0.60485	0.29527	-0.73971	99.98779	99.98779
3.90000	1.26902	0.61040	0.30808	-0.72988	100.04272	100.04272
1.70000	1.26646	0.61620	0.31391	-0.72234	100.00916	100.00916
3.70000	1.25993	0.62169	0.31788	-0.71587	100.02136	100.02136
1.50000	1.24914	0.61071	0.30799	-0.72964	100.02136	100.02136
3.50000	1.26604	0.60652	0.30097	-0.73598	100.00916	100.00916
1.30000	1.26958	0.60970	0.30729	-0.73074	100.03052	100.03052
3.30000	1.25283	0.60381	0.29136	-0.74206	100.00916	100.00916
1.10000	1.26447	0.60298	0.28523	-0.74514	100.03357	100.03357
3.10000	1.25893	0.60295	0.28092	-0.74691	100.00000	100.00000
0.90000	1.25936	0.60384	0.29102	-0.74227	100.02136	100.02136
2.90000	1.27029	0.60619	0.29920	-0.73708	100.00916	100.00916
0.70000	1.26802	0.60350	0.28819	-0.74358	99.98779	99.98779
2.70000	1.24970	0.60286	0.28336	-0.74602	100.00000	100.00000
0.50000	1.26376	0.60265	0.28089	-0.74706	100.02136	100.02136
2.50000	1.26774	0.60298	0.28309	-0.74593	100.02136	100.02136
0.30000	1.26589	0.60274	0.28278	-0.74630	99.98779	99.98779
2.30000	1.25965	0.60274	0.27912	-0.74755	100.04272	100.04272
0.10000	1.25283	0.60274	0.27827	-0.74789	100.00916	100.00916
2.10000	1.26774	0.60274	0.27860	-0.74792	99.96338	99.96338
4.10000	1.26660	0.60283	0.27812	-0.74801	100.00916	100.00916
1.90000	1.25127	0.60271	0.27589	-0.74877	100.02136	100.02136
3.90000	1.25113	0.60289	0.27467	-0.74911	100.02136	100.02136
1.70000	1.25297	0.60295	0.27375	-0.74950	100.00000	100.00000
3.70000	1.25482	0.60320	0.27125	-0.75008	100.00000	100.00000
1.50000	1.26646	0.60329	0.27042	-0.75051	99.97559	99.97559
3.50000	1.27072	0.60463	0.26322	-0.75182	100.00916	100.00916
1.30000	1.25908	0.60472	0.26316	-0.75182	99.98779	99.98779
3.30000	1.27086	0.60488	0.26240	-0.75192	100.00000	100.00000
1.10000	1.25851	0.60475	0.26386	-0.75158	100.00000	100.00000
3.10000	1.25723	0.60463	0.26292	-0.75182	100.00916	100.00916
0.90000	1.27001	0.60576	0.25861	-0.75262	99.97559	99.97559
2.90000	1.25467	0.60604	0.25852	-0.75237	99.97559	99.97559
0.70000	1.26916	0.60594	0.25834	-0.75243	99.98779	99.98779
2.70000	1.25893	0.60308	0.27216	-0.74999	100.00000	100.00000
0.50000	1.25624	0.60247	0.27400	-0.74975	100.02136	100.02136
2.50000	1.25326	0.60347	0.26701	-0.75140	99.96338	99.96338
0.30000	1.25822	0.60546	0.25968	-0.75249	99.98779	99.98779
2.30000	1.25936	0.60662	0.25568	-0.75277	99.98779	99.98779
0.10000	1.25695	0.60430	0.26337	-0.75207	99.98779	99.98779
2.10000	1.26760	0.60222	0.27540	-0.74947	100.00916	100.00916
4.10000	1.25893	0.60195	0.28224	-0.74722	100.02136	100.02136
1.90000	1.26902	0.60198	0.27824	-0.74859	99.98779	99.98779
3.90000	1.25183	0.60195	0.27573	-0.74947	100.03357	100.03357
1.70000	1.25794	0.60201	0.27638	-0.74911	100.00000	100.00000
3.70000	1.26731	0.60182	0.28031	-0.74807	100.00916	100.00916
1.50000	1.26249	0.60189	0.28388	-0.74657	100.00000	100.00000
3.50000	1.25837	0.60182	0.27787	-0.74886	100.04272	100.04272
1.30000	1.25979	0.60198	0.27592	-0.74957	100.00000	100.00000
3.30000	1.25510	0.60167	0.28336	-0.74697	100.03357	100.03357
1.10000	1.25723	0.60192	0.28602	-0.74581	100.02136	100.02136
3.10000	1.25311	0.60155	0.28205	-0.74761	100.00916	100.00916
0.90000	1.25538	0.60164	0.28428	-0.74664	100.00916	100.00916
2.90000	1.26234	0.60158	0.27738	-0.74935	100.03357	100.03357
0.70000	1.25169	0.60408	0.26273	-0.75243	100.02136	100.02136
2.70000	1.25013	0.60558	0.25797	-0.75301	99.98779	99.98779
0.50000	1.26419	0.60659	0.25410	-0.75341	100.00916	100.00916
2.50000	1.25141	0.60811	0.25077	-0.75332	99.97559	99.97559
0.30000	1.25382	0.60805	0.25071	-0.75341	99.98779	99.98779
2.30000	1.25297	0.60564	0.25694	-0.75317	100.00000	100.00000
0.10000	1.27001	0.60512	0.25770	-0.75335	100.02136	100.02136
2.10000	1.26745	0.60674	0.25370	-0.75347	99.96338	99.96338
4.10000	1.25723	0.60662	0.25416	-0.75344	100.00916	100.00916
1.90000	1.25084	0.60720	0.25150	-0.75375	99.98779	99.98779
3.90000	1.26902	0.60887	0.24870	-0.75344	99.98779	99.98779
1.70000	1.26788	0.61016	0.24589	-0.75326	99.97559	99.97559
3.70000	1.26902	0.61144	0.24351	-0.75298	99.98779	99.98779
1.50000	1.26902	0.61217	0.24238	-0.75286	99.97559	99.97559
3.50000	1.26632	0.61144	0.24363	-0.75298	100.00000	100.00000
1.30000	1.24970	0.61171	0.24265	-0.75314	99.96338	99.96338
3.30000	1.25013	0.61184	0.24241	-0.75314	99.98779	99.98779
1.10000	1.25254	0.61153	0.24271	-0.75317	100.00000	100.00000
3.10000	1.25212	0.61180	0.24244	-0.75304	100.00000	100.00000
0.90000	1.26263	0.61235	0.24134	-0.75304	99.98779	99.98779
2.90000	1.26348	0.61269	0.24033	-0.75298	99.98779	99.98779
0.70000	1.25908	0.61193	0.24143	-0.75323	100.00000	100.00000
2.70000	1.25908	0.61376	0.23893	-0.75256	99.97559	99.97559
0.50000	1.27100	0.61571	0.23594	-0.75192	99.96643	99.96643
2.50000	1.26078	0.61669	0.23475	-0.75143	99.97559	99.97559
0.30000	1.25411	0.61657	0.23469	-0.75161	99.97559	99.97559
2.30000	1.25013	0.61574	0.23612	-0.75188	99.98779	99.98779
0.10000	1.26731	0.61425	0.23801	-0.75256	99.97559	99.97559
2.10000	1.24871	0.61293	0.23975	-0.75304	100.00000	100.00000
4.10000	1.27029	0.61217	0.24168	-0.75298	99.97559	99.97559
1.90000	1.25169	0.61208	0.24104	-0.75332	100.00000	100.00000
3.90000	1.25425	0.61357	0.23899	-0.75268	100.00916	100.00916
1.70000	1.26930	0.61461	0.23817	-0.75216	100.00000	100.00000
3.70000	1.25936	0.61525	0.23603	-0.75228	99.97559	99.97559
1.50000	1.26007	0.61608	0.23518	-0.75198	99.98779	99.98779
3.50000	1.25638	0.61650	0.23447	-0.75167	100.02136	100.02136
1.30000	1.26490	0.61580	0.23536	-0.75198	99.98779	99.98779
3.30000	1.25993	0.61565	0.23594	-0.75192	100.00916	100.00916
1.10000	1.25439	0.61409	0.23768	-0.75265	100.02136	100.02136
3.10000	1.25113	0.61473	0.23707	-0.75246	99.98779	99.98779
0.90000	1.25169	0.61544	0.23579	-0.75219	99.98779	99.98779
2.90000	1.25254	0.61620	0.23487	-0.75179	100.00000	100.00000
0.70000	1.26291	0.61647	0.23472	-0.75167	100.00916	100.00916
2.70000	1.25084	0.61660	0.23438	-0.75176	100.00916	100.00916
0.50000	1.26532	0.61672	0.23420	-0.75161	100.00000	100.00000
2.50000	1.26660	0.60933	0.24491	-0.75417	100.02136	100.02136
0.30000	1.25936	0.61043	0.24302	-0.75384	100.05493	100.05493
2.30000	1.27029	0.61214	0.24076	-0.75338	99.98779	99.98779
0.10000	1.27044	0.61599	0.23493	-0.75201	99.95422	99.95422
2.10000	1.26390	0.61245	0.23972	-0.75341	100.00000	100.00000
4.10000	1.25581	0.60985	0.24390	-0.75417	100.00916	100.00916
1.90000	1.25183	0.60472	0.25459	-0.75472	100.00000	100.00000
3.90000	1.25822	0.60054	0.26948	-0.75292	100.04272	100.04272
1.70000	1.25127	0.60201	0.26337	-0.75399	100.04272	100.04272
3.70000	1.25169	0.59926	0.28104	-0.74966	100.07935	100.07935
1.50000	1.26461	0.60356	0.30262	-0.73775	100.05493	100.05493
3.50000	1.25936	0.59941	0.28169	-0.74932	100.03357	100.03357
1.30000	1.26604	0.60396	0.25632	-0.75478	100.04272	100.04272
3.30000	1.25510	0.61068	0.24235	-0.75402	100.00916	100.00916
1.10000	1.25453	0.60887	0.24555	-0.75451	100.00916	100.00916
3.10000	1.27058	0.60366	0.25745	-0.75472	100.04272	100.04272
0.90000	1.25013	0.60244	0.26197	-0.75411	100.04272	100.04272
2.90000	1.26632	0.60585	0.25193	-0.75478	100.00916	100.00916
0.70000	1.26064	0.60399	0.25669	-0.75454	100.00000	100.00000
2.70000	1.26788	0.60143	0.26502	-0.75378	100.02136	100.02136
0.50000	1.26774	0.60094	0.26722	-0.75344	100.03357	100.03357
2.50000	1.26888	0.60054	0.26945	-0.75292	100.03357	100.03357
0.30000	1.26177	0.60051	0.26948	-0.75295	100.02136	100.02136
2.30000	1.25524	0.60067	0.26926	-0.75292	100.05493	100.05493
0.10000	1.26618	0.60027	0.27183	-0.75225	100.04272	100.04272
2.10000	1.26575	0.60030	0.28977	-0.74554	100.00916	100.00916
4.10000	1.25382	0.60103	0.29386	-0.74328	100.07629	100.07629
1.90000	1.25780	0.60366	0.30195	-0.73812	100.00916	100.00916
3.90000	1.27257	0.60271	0.29997	-0.73952	100.03052	100.03052
1.70000	1.25482	0.60021	0.28843	-0.74627	100.03357	100.03357
3.70000	1.27115	0.60182	0.29640	-0.74178	100.04272	100.04272
1.50000	1.25453	0.60204	0.29734	-0.74111	100.04272	100.04272
3.50000	1.25425	0.60710	0.30799	-0.73260	100.03357	100.03357
1.30000	1.27100	0.60085	0.29145	-0.74444	100.04272	100.04272
3.30000	1.27356	0.60063	0.27125	-0.75222	100.00000	100.00000
1.10000	1.26135	0.60036	0.27390	-0.75146	100.02136	100.02136
3.10000	1.25311	0.60009	0.28681	-0.74688	100.06714	100.06714
0.90000	1.25510	0.60195	0.29612	-0.74175	100.05493	100.05493
2.90000	1.26050	0.60088	0.29011	-0.74487	100.07629	100.07629
0.70000	1.25311	0.59999	0.27879	-0.75002	100.05493	100.05493
2.70000	1.25297	0.60213	0.29579	-0.74178	100.05493	100.05493
0.50000	1.26973	0.60033	0.28327	-0.74792	100.02136	100.02136
2.50000	1.25666	0.60036	0.28593	-0.74697	100.02136	100.02136
0.30000	1.25666	0.60097	0.28925	-0.74529	100.02136	100.02136
2.30000	1.25766	0.60445	0.30204	-0.73733	100.02136	100.02136
0.10000	1.25254	0.60436	0.30149	-0.73751	100.02136	100.02136
2.10000	1.25666	0.60680	0.30644	-0.73360	100.02136	100.02136
4.10000	1.25226	0.60918	0.30976	-0.73019	100.06714	100.06714
1.90000	1.26689	0.61626	0.31669	-0.72115	100.02136	100.02136
3.90000	1.26859	0.60436	0.30091	-0.73791	100.00916	100.00916
1.70000	1.26845	0.60823	0.30879	-0.73141	100.00916	100.00916
3.70000	1.25709	0.61235	0.31306	-0.72619	100.04272	100.04272
1.50000	1.26646	0.61928	0.31822	-0.71789	100.07629	100.07629
3.50000	1.25269	0.61205	0.31306	-0.72637	100.03357	100.03357
1.30000	1.26106	0.61184	0.31254	-0.72665	100.07629	100.07629
3.30000	1.25780	0.61403	0.31452	-0.72399	100.03357	100.03357
1.10000	1.25595	0.61721	0.31687	-0.72027	100.04272	100.04272
3.10000	1.25425	0.61019	0.31071	-0.72893	100.03357	100.03357
0.90000	1.26135	0.61238	0.31321	-0.72600	100.04272	100.04272
2.90000	1.26731	0.60448	0.30055	-0.73782	100.04272	100.04272
0.70000	1.26816	0.60289	0.29487	-0.74139	100.03357	100.03357
2.70000	1.27029	0.60442	0.30052	-0.73797	100.00916	100.00916
0.50000	1.25354	0.60405	0.29865	-0.73894	100.03357	100.03357
2.50000	1.27299	0.60924	0.30869	-0.73058	100.02136	100.02136
0.30000	1.26390	0.60756	0.30534	-0.73351	100.00000	100.00000
2.30000	1.26604	0.60543	0.30210	-0.73653	100.00916	100.00916
0.10000	1.25013	0.60619	0.30372	-0.73519	100.03357	100.03357
2.10000	1.25382	0.61220	0.31220	-0.72671	100.02136	100.02136
4.10000	1.27186	0.60622	0.30345	-0.73534	100.00916	100.00916
1.90000	1.27200	0.61156	0.31187	-0.72744	100.04272	100.04272
3.90000	1.25666	0.61559	0.31556	-0.72234	100.03357	100.03357
1.70000	1.27058	0.61284	0.31242	-0.72600	100.02136	100.02136
3.70000	1.26703	0.60537	0.30198	-0.73656	100.00916	100.00916
1.50000	1.25567	0.61589	0.31544	-0.72201	100.04272	100.04272
3.50000	1.25567	0.61669	0.31648	-0.72109	100.00916	100.00916
1.30000	1.26376	0.61541	0.31520	-0.72265	100.02136	100.02136
3.30000	1.26802	0.62261	0.31928	-0.71462	100.02136	100.02136
1.10000	1.25822	0.62203	0.31928	-0.71499	100.06714	100.06714
3.10000	1.26476	0.60979	0.30869	-0.73006	100.05493	100.05493
0.90000	1.26050	0.60994	0.30879	-0.72988	100.03357	100.03357
2.90000	1.25297	0.61354	0.31281	-0.72530	100.03357	100.03357
0.70000	1.25879	0.61104	0.31059	-0.72823	100.04272	100.04272
2.70000	1.25822	0.61501	0.31458	-0.72317	100.02136	100.02136
0.50000	1.26873	0.61208	0.31126	-0.72713	100.06714	100.06714
2.50000	1.25965	0.60527	0.30064	-0.73721	100.02136	100.02136
0.30000	1.27157	0.60900	0.30772	-0.73113	100.03052	100.03052
2.30000	1.27143	0.61763	0.31639	-0.72021	100.00916	100.00916
0.10000	1.26504	0.61116	0.31062	-0.72820	100.06714	100.06714
2.10000	1.26958	0.60628	0.30229	-0.73559	100.00916	100.00916
4.10000	1.26490	0.60259	0.28837	-0.74429	100.00916	100.00916
1.90000	1.27129	0.60698	0.30363	-0.73464	100.00000	100.00000
3.90000	1.26348	0.61025	0.30940	-0.72939	100.04272	100.04272
1.70000	1.25837	0.61187	0.31101	-0.72732	100.03357	100.03357
3.70000	1.25609	0.61879	0.31687	-0.71896	100.03357	100.03357
1.50000	1.25226	0.61687	0.31578	-0.72100	100.04272	100.04272
3.50000	1.26092	0.61687	0.31556	-0.72118	100.03357	100.03357
1.30000	1.26973	0.61122	0.31016	-0.72832	100.04272	100.04272
3.30000	1.25524	0.61464	0.31361	-0.72390	100.03357	100.03357
1.10000	1.25183	0.61318	0.31242	-0.72561	100.04272	100.04272
3.10000	1.25240	0.61199	0.31092	-0.72738	100.02136	100.02136
0.90000	1.25155	0.61299	0.31227	-0.72585	100.05493	100.05493
2.90000	1.25027	0.62065	0.31758	-0.71694	100.04272	100.04272
0.70000	1.25453	0.61199	0.31065	-0.72747	100.04272	100.04272
2.70000	1.26348	0.61092	0.30949	-0.72878	100.04272	100.04272
0.50000	1.27115	0.61046	0.30891	-0.72939	100.00000	100.00000
2.50000	1.26433	0.60579	0.29987	-0.73708	100.00916	100.00916
0.30000	1.27143	0.60949	0.30744	-0.73089	100.00916	100.00916
2.30000	1.26646	0.61361	0.31285	-0.72521	100.03357	100.03357
0.10000	1.25666	0.60717	0.30290	-0.73467	100.00916	100.00916
2.10000	1.26305	0.61263	0.31114	-0.72677	100.00916	100.00916
4.10000	1.25581	0.61245	0.31144	-0.72668	100.04272	100.04272
1.90000	1.26774	0.60680	0.30216	-0.73519	100.00916	100.00916
3.90000	1.25254	0.61321	0.31202	-0.72576	100.05493	100.05493
1.70000	1.25141	0.61754	0.31547	-0.72060	100.00916	100.00916
3.70000	1.26717	0.62319	0.31870	-0.71432	100.03357	100.03357
1.50000	1.26816	0.61724	0.31559	-0.72082	100.00916	100.00916
3.50000	1.25127	0.60958	0.30680	-0.73110	100.02136	100.02136
1.30000	1.25013	0.60640	0.30039	-0.73629	99.97559	99.97559
3.30000	1.26816	0.61147	0.30955	-0.72842	100.03357	100.03357
1.10000	1.26249	0.61879	0.31599	-0.71941	99.96338	99.96338
3.10000	1.27086	0.61834	0.31532	-0.71996	100.03052	100.03052
0.90000	1.26305	0.61980	0.31635	-0.71822	100.00000	100.00000
2.90000	1.26802	0.62429	0.31892	-0.71334	100.02136	100.02136
0.70000	1.27129	0.61602	0.31400	-0.72253	100.04272	100.04272
2.70000	1.25411	0.60930	0.30586	-0.73168	99.98779	99.98779
0.50000	1.26092	0.60930	0.30537	-0.73193	100.00000	100.00000
2.50000	1.26320	0.60875	0.30473	-0.73266	100.02136	100.02136
0.30000	1.25269	0.61266	0.31010	-0.72713	100.02136	100.02136
2.30000	1.26930	0.61556	0.31358	-0.72317	100.02136	100.02136
0.10000	1.26958	0.62145	0.31773	-0.71615	99.97559	99.97559
2.10000	1.27072	0.62041	0.31678	-0.71767	100.00916	100.00916
4.10000	1.26249	0.61864	0.31620	-0.71938	100.02136	100.02136
1.90000	1.25965	0.61748	0.31504	-0.72088	100.03357	100.03357
3.90000	1.26192	0.62178	0.31785	-0.71587	100.04272	100.04272
1.70000	1.26234	0.62148	0.31764	-0.71621	100.02136	100.02136
3.70000	1.26802	0.60906	0.30528	-0.73211	100.00000	100.00000
1.50000	1.26206	0.60518	0.29548	-0.73928	99.98779	99.98779
3.50000	1.25467	0.60311	0.28611	-0.74471	100.00000	100.00000
1.30000	1.27072	0.60302	0.28462	-0.74517	100.00916	100.00916
3.30000	1.26660	0.60427	0.29246	-0.74126	100.00000	100.00000
1.10000	1.25240	0.60436	0.29206	-0.74142	100.00916	100.00916
3.10000	1.25127	0.60482	0.29347	-0.74053	100.00916	100.00916
0.90000	1.26092	0.60421	0.29081	-0.74197	100.00916	100.00916
2.90000	1.27015	0.60295	0.28193	-0.74639	100.00000	100.00000
0.70000	1.25808	0.60298	0.27949	-0.74734	99.97559	99.97559
2.70000	1.25538	0.60268	0.27726	-0.74822	100.03357	100.03357
0.50000	1.24999	0.60314	0.27308	-0.74963	100.00000	100.00000
2.50000	1.26036	0.60277	0.27412	-0.74935	100.04272	100.04272
0.30000	1.25141	0.60305	0.27421	-0.74929	100.00916	100.00916
2.30000	1.26802	0.60305	0.27351	-0.74941	99.98779	99.98779
0.10000	1.26731	0.60286	0.27625	-0.74871	100.00000	100.00000
2.10000	1.25482	0.60277	0.27604	-0.74889	99.98779	99.98779
4.10000	1.24843	0.60323	0.27192	-0.74996	100.00000	100.00000
1.90000	1.26476	0.60366	0.26804	-0.75106	100.00916	100.00916
3.90000	1.25212	0.60436	0.26475	-0.75152	100.00000	